#S 1 spectral density
#N 2
#UFWHM 6.45337
#L  abscissas [um]  spectral density
-234.375  2.01653e+20
-233.788  1.66208e+20
-233.202  1.17175e+20
-232.615  9.33302e+19
-232.028  9.2395e+19
-231.442  1.01965e+20
-230.855  2.32317e+20
-230.268  2.07819e+20
-229.682  8.85127e+19
-229.095  1.18853e+20
-228.508  1.62993e+20
-227.922  1.87149e+20
-227.335  1.37136e+20
-226.748  4.82816e+19
-226.162  3.36584e+19
-225.575  7.11797e+19
-224.988  2.69024e+20
-224.402  2.79553e+20
-223.815  1.67147e+20
-223.228  7.21678e+19
-222.642  5.77086e+19
-222.055  1.21497e+20
-221.468  1.36655e+20
-220.882  7.76095e+19
-220.295  1.15154e+20
-219.708  1.39569e+20
-219.122  2.16568e+20
-218.535  2.0898e+20
-217.948  2.51331e+20
-217.362  9.06969e+19
-216.775  7.35104e+19
-216.188  1.05509e+20
-215.602  5.31046e+19
-215.015  9.07296e+19
-214.428  2.02583e+20
-213.842  2.22137e+20
-213.255  2.00436e+20
-212.668  7.53108e+19
-212.082  1.71614e+20
-211.495  1.16594e+20
-210.908  2.01641e+20
-210.322  1.59847e+20
-209.735  6.14793e+19
-209.148  5.34211e+19
-208.562  1.45238e+20
-207.975  2.48543e+20
-207.388  2.36157e+20
-206.802  3.4109e+19
-206.215  8.2108e+19
-205.628  1.04306e+20
-205.041  2.63947e+20
-204.455  2.57283e+20
-203.868  1.98573e+20
-203.281  5.50201e+19
-202.695  7.92514e+19
-202.108  1.57865e+20
-201.521  1.98441e+20
-200.935  1.58659e+20
-200.348  1.93432e+20
-199.761  1.23482e+20
-199.175  1.58872e+20
-198.588  2.04735e+20
-198.001  1.79753e+20
-197.415  1.35044e+20
-196.828  2.808e+20
-196.241  1.28772e+20
-195.655  9.1011e+19
-195.068  2.13689e+20
-194.481  2.13854e+20
-193.895  2.5336e+20
-193.308  1.31152e+20
-192.721  4.57445e+19
-192.135  7.14728e+19
-191.548  1.16929e+20
-190.961  4.21283e+20
-190.375  3.02817e+20
-189.788  9.49257e+19
-189.201  1.51357e+20
-188.615  8.91596e+19
-188.028  2.78553e+20
-187.441  2.52334e+20
-186.855  1.45287e+20
-186.268  1.18726e+20
-185.681  7.91934e+19
-185.095  2.40536e+20
-184.508  2.97477e+20
-183.921  1.46415e+20
-183.335  2.35901e+20
-182.748  1.94218e+20
-182.161  2.58815e+20
-181.575  2.32853e+20
-180.988  2.76026e+20
-180.401  1.56344e+20
-179.815  2.27212e+20
-179.228  1.49602e+20
-178.641  1.43583e+20
-178.055  1.75611e+20
-177.468  2.90695e+20
-176.881  2.85315e+20
-176.295  3.02705e+20
-175.708  1.1756e+20
-175.121  1.51694e+20
-174.535  1.47973e+20
-173.948  4.99889e+20
-173.361  2.49086e+20
-172.775  1.93548e+20
-172.188  2.13637e+20
-171.601  1.53387e+20
-171.015  2.92901e+20
-170.428  3.81943e+20
-169.841  1.37353e+20
-169.255  2.26569e+20
-168.668  1.28082e+20
-168.081  4.33237e+20
-167.495  2.29901e+20
-166.908  2.38824e+20
-166.321  2.33253e+20
-165.735  2.57766e+20
-165.148  3.55849e+20
-164.561  3.82724e+20
-163.975  2.06385e+20
-163.388  3.28155e+20
-162.801  2.35202e+20
-162.215  3.59713e+20
-161.628  1.80643e+20
-161.041  2.80789e+20
-160.455  2.22396e+20
-159.868  4.29683e+20
-159.281  3.9981e+20
-158.695  2.08186e+20
-158.108  1.85939e+20
-157.521  3.46773e+20
-156.935  4.12637e+20
-156.348  5.28688e+20
-155.761  2.95848e+20
-155.175  2.79906e+20
-154.588  1.75765e+20
-154.001  4.84606e+20
-153.415  4.00445e+20
-152.828  3.58628e+20
-152.241  3.39319e+20
-151.655  2.45513e+20
-151.068  3.57724e+20
-150.481  3.80106e+20
-149.895  2.3209e+20
-149.308  4.1772e+20
-148.721  3.81245e+20
-148.135  5.29127e+20
-147.548  2.60058e+20
-146.961  3.471e+20
-146.375  3.71161e+20
-145.788  4.95251e+20
-145.201  6.44085e+20
-144.614  3.20123e+20
-144.028  2.32515e+20
-143.441  3.72253e+20
-142.854  4.02106e+20
-142.268  7.32361e+20
-141.681  3.40962e+20
-141.094  3.27292e+20
-140.508  2.38993e+20
-139.921  4.81858e+20
-139.334  6.36699e+20
-138.748  4.35529e+20
-138.161  3.99364e+20
-137.574  3.22611e+20
-136.988  4.05296e+20
-136.401  7.66246e+20
-135.814  3.86645e+20
-135.228  5.92316e+20
-134.641  4.54728e+20
-134.054  5.3171e+20
-133.468  4.77962e+20
-132.881  5.39986e+20
-132.294  4.82937e+20
-131.708  5.44546e+20
-131.121  5.62026e+20
-130.534  4.11465e+20
-129.948  3.33625e+20
-129.361  5.46903e+20
-128.774  4.55481e+20
-128.188  8.79452e+20
-127.601  3.86505e+20
-127.014  3.56114e+20
-126.428  3.72139e+20
-125.841  6.6289e+20
-125.254  7.77173e+20
-124.668  5.81348e+20
-124.081  4.80404e+20
-123.494  3.73958e+20
-122.908  5.12278e+20
-122.321  9.49267e+20
-121.734  4.5558e+20
-121.148  7.6791e+20
-120.561  3.64171e+20
-119.974  5.39725e+20
-119.388  7.23692e+20
-118.801  5.07399e+20
-118.214  5.48915e+20
-117.628  5.72481e+20
-117.041  6.28397e+20
-116.454  6.45926e+20
-115.868  3.82433e+20
-115.281  7.0604e+20
-114.694  3.89667e+20
-114.108  9.65377e+20
-113.521  6.83424e+20
-112.934  3.56495e+20
-112.348  5.78095e+20
-111.761  5.04415e+20
-111.174  8.34111e+20
-110.588  9.81738e+20
-110.001  4.35288e+20
-109.414  6.11301e+20
-108.828  4.87841e+20
-108.241  8.66669e+20
-107.654  7.23339e+20
-107.068  7.81849e+20
-106.481  4.67014e+20
-105.894  4.5317e+20
-105.308  6.92723e+20
-104.721  6.48476e+20
-104.134  5.77395e+20
-103.548  6.82515e+20
-102.961  4.94093e+20
-102.374  7.11165e+20
-101.788  3.91567e+20
-101.201  6.64268e+20
-100.614  4.75034e+20
-100.028  7.49797e+20
-99.4409  7.18854e+20
-98.8542  3.6777e+20
-98.2676  5.17705e+20
-97.6809  5.8292e+20
-97.0942  6.47507e+20
-96.5075  9.82945e+20
-95.9209  4.88874e+20
-95.3342  5.49917e+20
-94.7475  3.55012e+20
-94.1609  9.87667e+20
-93.5742  6.71372e+20
-92.9875  5.73386e+20
-92.4009  7.04239e+20
-91.8142  2.89229e+20
-91.2275  7.17773e+20
-90.6409  8.78551e+20
-90.0542  3.72102e+20
-89.4675  7.99901e+20
-88.8808  2.54804e+20
-88.2942  6.64217e+20
-87.7075  6.16061e+20
-87.1208  4.59941e+20
-86.5342  4.51612e+20
-85.9475  3.43058e+20
-85.3608  6.99765e+20
-84.7741  4.22723e+20
-84.1875  4.353e+20
-83.6008  5.24445e+20
-83.0141  2.22406e+20
-82.4275  8.17217e+20
-81.8408  3.41395e+20
-81.2541  4.57669e+20
-80.6675  4.4212e+20
-80.0808  2.9365e+20
-79.4941  6.59703e+20
-78.9074  4.07295e+20
-78.3208  6.2815e+20
-77.7341  4.4347e+20
-77.1474  2.49323e+20
-76.5608  8.65063e+20
-75.9741  2.2802e+20
-75.3874  6.25428e+20
-74.8008  5.72858e+20
-74.2141  2.32091e+20
-73.6274  5.991e+20
-73.0408  3.94931e+20
-72.4541  4.27595e+20
-71.8674  5.68571e+20
-71.2807  4.22626e+20
-70.6941  4.66844e+20
-70.1074  2.76424e+20
-69.5207  4.40065e+20
-68.9341  3.31e+20
-68.3474  4.59173e+20
-67.7607  3.41157e+20
-67.174  2.35791e+20
-66.5874  3.65869e+20
-66.0007  2.61382e+20
-65.414  3.08666e+20
-64.8274  3.94796e+20
-64.2407  2.45851e+20
-63.654  2.64176e+20
-63.0674  1.16802e+20
-62.4807  4.16104e+20
-61.894  1.76598e+20
-61.3073  1.75077e+20
-60.7207  3.09439e+20
-60.134  1.09703e+20
-59.5473  2.47887e+20
-58.9607  3.1645e+20
-58.374  1.15766e+20
-57.7873  4.39217e+20
-57.2007  1.91284e+20
-56.614  1.53387e+20
-56.0273  2.6868e+20
-55.4407  3.27653e+20
-54.854  3.28791e+20
-54.2673  2.79983e+20
-53.6806  2.50093e+20
-53.094  3.37961e+20
-52.5073  4.07626e+20
-51.9206  4.27529e+20
-51.334  4.15694e+20
-50.7473  3.63933e+20
-50.1606  3.43537e+20
-49.5739  4.54412e+20
-48.9873  5.53925e+20
-48.4006  5.07512e+20
-47.8139  2.90776e+20
-47.2273  3.82605e+20
-46.6406  8.8447e+20
-46.0539  5.41298e+20
-45.4673  4.51758e+20
-44.8806  5.76168e+20
-44.2939  3.95301e+20
-43.7072  9.05857e+20
-43.1206  5.14769e+20
-42.5339  6.22027e+20
-41.9472  6.94263e+20
-41.3606  3.50207e+20
-40.7739  1.0168e+21
-40.1872  8.95142e+20
-39.6006  5.25219e+20
-39.0139  7.27219e+20
-38.4272  3.8049e+20
-37.8406  1.32415e+21
-37.2539  6.93813e+20
-36.6672  5.19904e+20
-36.0805  1.01562e+21
-35.4939  3.86205e+20
-34.9072  1.36187e+21
-34.3205  8.92315e+20
-33.7339  5.42316e+20
-33.1472  1.17199e+21
-32.5605  2.73273e+20
-31.9738  1.46943e+21
-31.3872  1.03036e+21
-30.8005  5.41582e+20
-30.2138  1.24072e+21
-29.6272  4.05407e+20
-29.0405  1.76806e+21
-28.4538  9.53187e+20
-27.8672  5.46598e+20
-27.2805  1.5111e+21
-26.6938  3.40086e+20
-26.1072  1.85432e+21
-25.5205  1.02584e+21
-24.9338  7.82629e+20
-24.3471  1.6555e+21
-23.7605  3.98814e+20
-23.1738  2.10875e+21
-22.5871  1.09605e+21
-22.0005  8.80719e+20
-21.4138  1.76722e+21
-20.8271  6.1017e+20
-20.2404  2.53666e+21
-19.6538  1.052e+21
-19.0671  1.26909e+21
-18.4804  2.36984e+21
-17.8938  7.91316e+20
-17.3071  2.7674e+21
-16.7204  1.33041e+21
-16.1338  1.77695e+21
-15.5471  2.74828e+21
-14.9604  1.32606e+21
-14.3737  3.86196e+21
-13.7871  1.89236e+21
-13.2004  2.74391e+21
-12.6137  3.88148e+21
-12.0271  2.46614e+21
-11.4404  5.34051e+21
-10.8537  3.0757e+21
-10.2671  5.22755e+21
-9.68039  7.41708e+21
-9.09372  6.43874e+21
-8.50705  1.13325e+22
-7.92038  1.08176e+22
-7.33371  1.78974e+22
-6.74704  2.66978e+22
-6.16037  3.40782e+22
-5.5737  5.56778e+22
-4.98703  7.13746e+22
-4.40036  1.01549e+23
-3.81369  1.40997e+23
-3.22702  1.70279e+23
-2.64035  2.18346e+23
-2.05368  2.50069e+23
-1.46701  2.7539e+23
-0.88034  3.1618e+23
-0.29367  3.21039e+23
0.293  3.22729e+23
0.87967  3.19978e+23
1.46634  2.81219e+23
2.05301  2.58152e+23
2.63968  2.26782e+23
3.22635  1.78794e+23
3.81302  1.49161e+23
4.39969  1.08192e+23
4.98636  7.69511e+22
5.57303  6.00683e+22
6.1597  3.7091e+22
6.74637  2.88771e+22
7.33304  1.92679e+22
7.91971  1.16653e+22
8.50638  1.19299e+22
9.09305  6.79503e+21
9.67972  7.72398e+21
10.2664  5.43392e+21
10.8531  3.21003e+21
11.4397  5.47429e+21
12.0264  2.54334e+21
12.6131  3.95902e+21
13.1997  2.78864e+21
13.7864  1.94017e+21
14.3731  3.9276e+21
14.9597  1.36368e+21
15.5464  2.80421e+21
16.1331  1.81342e+21
16.7198  1.35375e+21
17.3064  2.78821e+21
17.8931  8.03542e+20
18.4798  2.39334e+21
19.0664  1.27925e+21
19.6531  1.07104e+21
20.2398  2.5693e+21
20.8265  6.23942e+20
21.4131  1.78802e+21
21.9998  8.92336e+20
22.5865  1.10472e+21
23.1731  2.11742e+21
23.7598  4.02552e+20
24.3465  1.67272e+21
24.9331  7.87288e+20
25.5198  1.03689e+21
26.1065  1.87339e+21
26.6931  3.4461e+20
27.2798  1.52238e+21
27.8665  5.49331e+20
28.4532  9.6194e+20
29.0398  1.76949e+21
29.6265  4.09412e+20
30.2132  1.25401e+21
30.7998  5.43301e+20
31.3865  1.04015e+21
31.9732  1.4792e+21
32.5599  2.75441e+20
33.1465  1.17694e+21
33.7332  5.42207e+20
34.3199  9.01677e+20
34.9065  1.3626e+21
35.4932  3.88347e+20
36.0799  1.02689e+21
36.6665  5.18821e+20
37.2532  7.00089e+20
37.8399  1.32844e+21
38.4265  3.81536e+20
39.0132  7.2994e+20
39.5999  5.21669e+20
40.1866  9.05329e+20
40.7732  1.01522e+21
41.3599  3.51791e+20
41.9466  6.99959e+20
42.5332  6.18577e+20
43.1199  5.20305e+20
43.7066  9.05468e+20
44.2933  3.94252e+20
44.8799  5.77547e+20
45.4666  4.49267e+20
46.0533  5.4556e+20
46.6399  8.83608e+20
47.2266  3.84452e+20
47.8133  2.92654e+20
48.3999  5.02125e+20
48.9866  5.57387e+20
49.5733  4.52111e+20
50.1599  3.43196e+20
50.7466  3.65019e+20
51.3333  4.11954e+20
51.92  4.3237e+20
52.5066  4.05137e+20
53.0933  3.38802e+20
53.68  2.51402e+20
54.2666  2.77538e+20
54.8533  3.29984e+20
55.44  3.25658e+20
56.0266  2.69276e+20
56.6133  1.54838e+20
57.2  1.88482e+20
57.7867  4.43499e+20
58.3733  1.16594e+20
58.96  3.18601e+20
59.5467  2.47983e+20
60.1333  1.08346e+20
60.72  3.13582e+20
61.3067  1.74942e+20
61.8933  1.79089e+20
62.48  4.19698e+20
63.0667  1.168e+20
63.6534  2.668e+20
64.24  2.47783e+20
64.8267  3.98513e+20
65.4134  3.10503e+20
66  2.63059e+20
66.5867  3.69483e+20
67.1734  2.35678e+20
67.7601  3.45648e+20
68.3467  4.61788e+20
68.9334  3.317e+20
69.5201  4.45197e+20
70.1067  2.78077e+20
70.6934  4.67804e+20
71.2801  4.23843e+20
71.8667  5.71502e+20
72.4534  4.30261e+20
73.0401  3.95961e+20
73.6268  6.02852e+20
74.2134  2.33895e+20
74.8001  5.71648e+20
75.3868  6.29648e+20
75.9734  2.29201e+20
76.5601  8.66124e+20
77.1468  2.49075e+20
77.7334  4.4618e+20
78.3201  6.29817e+20
78.9068  4.091e+20
79.4934  6.63185e+20
80.0801  2.9424e+20
80.6668  4.43058e+20
81.2535  4.61273e+20
81.8401  3.45039e+20
82.4268  8.19081e+20
83.0135  2.22821e+20
83.6001  5.29882e+20
84.1868  4.37255e+20
84.7735  4.2749e+20
85.3602  7.05084e+20
85.9468  3.44536e+20
86.5335  4.55884e+20
87.1202  4.63658e+20
87.7068  6.21389e+20
88.2935  6.69348e+20
88.8802  2.57886e+20
89.4668  8.08415e+20
90.0535  3.75964e+20
90.6402  8.84109e+20
91.2268  7.21013e+20
91.8135  2.91698e+20
92.4002  7.10802e+20
92.9869  5.77364e+20
93.5735  6.78757e+20
94.1602  9.90011e+20
94.7469  3.56293e+20
95.3335  5.55584e+20
95.9202  4.93366e+20
96.5069  9.90529e+20
97.0935  6.50877e+20
97.6802  5.84509e+20
98.2669  5.21261e+20
98.8536  3.69462e+20
99.4402  7.28394e+20
100.027  7.54259e+20
100.614  4.77603e+20
101.2  6.68835e+20
101.787  3.95316e+20
102.374  7.17439e+20
102.96  4.98766e+20
103.547  6.89354e+20
104.134  5.82575e+20
104.72  6.5136e+20
105.307  7.00646e+20
105.894  4.58038e+20
106.48  4.72283e+20
107.067  7.87396e+20
107.654  7.30025e+20
108.24  8.72154e+20
108.827  4.91216e+20
109.414  6.17985e+20
110  4.40916e+20
110.587  9.8709e+20
111.174  8.42e+20
111.76  5.085e+20
112.347  5.8297e+20
112.934  3.60863e+20
113.52  6.9004e+20
114.107  9.70505e+20
114.694  3.92994e+20
115.28  7.12243e+20
115.867  3.86748e+20
116.454  6.51479e+20
117.04  6.34068e+20
117.627  5.77957e+20
118.214  5.54077e+20
118.8  5.12231e+20
119.387  7.31959e+20
119.974  5.42689e+20
120.56  3.68511e+20
121.147  7.75486e+20
121.734  4.5938e+20
122.32  9.56109e+20
122.907  5.16712e+20
123.494  3.77977e+20
124.08  4.85305e+20
124.667  5.87978e+20
125.254  7.84778e+20
125.84  6.63645e+20
126.427  3.75393e+20
127.014  3.60353e+20
127.6  3.91333e+20
128.187  8.88261e+20
128.774  4.59564e+20
129.36  5.51866e+20
129.947  3.35604e+20
130.534  4.17452e+20
131.12  5.72091e+20
131.707  5.47629e+20
132.294  4.86766e+20
132.88  5.4423e+20
133.467  4.79722e+20
134.054  5.37522e+20
134.64  4.6101e+20
135.227  5.98211e+20
135.814  3.87242e+20
136.4  7.72362e+20
136.987  4.08384e+20
137.574  3.24132e+20
138.16  4.05476e+20
138.747  4.39723e+20
139.334  6.3899e+20
139.92  4.85837e+20
140.507  2.41472e+20
141.094  3.31146e+20
141.68  3.44641e+20
142.267  7.41033e+20
142.854  4.05565e+20
143.44  3.74897e+20
144.027  2.34453e+20
144.614  3.23608e+20
145.2  6.475e+20
145.787  4.99693e+20
146.374  3.75337e+20
146.96  3.4986e+20
147.547  2.61345e+20
148.134  5.35238e+20
148.721  3.82663e+20
149.307  4.21761e+20
149.894  2.34428e+20
150.481  3.84511e+20
151.067  3.58707e+20
151.654  2.47879e+20
152.241  3.42978e+20
152.827  3.61579e+20
153.414  4.04797e+20
154.001  4.90489e+20
154.587  1.75661e+20
155.174  2.81681e+20
155.761  2.96991e+20
156.347  5.32867e+20
156.934  4.14912e+20
157.521  3.48601e+20
158.107  1.87544e+20
158.694  2.09186e+20
159.281  4.0402e+20
159.867  4.33945e+20
160.454  2.2455e+20
161.041  2.82095e+20
161.627  1.81451e+20
162.214  3.6348e+20
162.801  2.38092e+20
163.387  3.30923e+20
163.974  2.0873e+20
164.561  3.82391e+20
165.147  3.58265e+20
165.734  2.61387e+20
166.321  2.35365e+20
166.907  2.40766e+20
167.494  2.32034e+20
168.081  4.32745e+20
168.667  1.29401e+20
169.254  2.29262e+20
169.841  1.39158e+20
170.427  3.84295e+20
171.014  2.95881e+20
171.601  1.53649e+20
172.187  2.15868e+20
172.774  1.94594e+20
173.361  2.51965e+20
173.947  5.00833e+20
174.534  1.48931e+20
175.121  1.51449e+20
175.707  1.18312e+20
176.294  3.04527e+20
176.881  2.87161e+20
177.467  2.9155e+20
178.054  1.76919e+20
178.641  1.43043e+20
179.227  1.53105e+20
179.814  2.29219e+20
180.401  1.57706e+20
180.987  2.76031e+20
181.574  2.32071e+20
182.161  2.58981e+20
182.747  1.97115e+20
183.334  2.37282e+20
183.921  1.48822e+20
184.507  2.98354e+20
185.094  2.40303e+20
185.681  7.99429e+19
186.267  1.21155e+20
186.854  1.45812e+20
187.441  2.55361e+20
188.027  2.78892e+20
188.614  8.96697e+19
189.201  1.52321e+20
189.787  9.5752e+19
190.374  3.04782e+20
190.961  4.24172e+20
191.547  1.16692e+20
192.134  7.17476e+19
192.721  4.59495e+19
193.307  1.32369e+20
193.894  2.54554e+20
194.481  2.14772e+20
195.067  2.13436e+20
195.654  9.10622e+19
196.241  1.30055e+20
196.827  2.83559e+20
197.414  1.36602e+20
198.001  1.78631e+20
198.587  2.03894e+20
199.174  1.58832e+20
199.761  1.23163e+20
200.347  1.95094e+20
200.934  1.59692e+20
201.521  1.97908e+20
202.107  1.5914e+20
202.694  8.08072e+19
203.281  5.55789e+19
203.867  1.98609e+20
204.454  2.58454e+20
205.041  2.63221e+20
205.627  1.04746e+20
206.214  8.30746e+19
206.801  3.46036e+19
207.388  2.36188e+20
207.974  2.4958e+20
208.561  1.46005e+20
209.148  5.38405e+19
209.734  6.15631e+19
210.321  1.61437e+20
210.908  2.01578e+20
211.494  1.16538e+20
212.081  1.71308e+20
212.668  7.44786e+19
213.254  2.00508e+20
213.841  2.23575e+20
214.428  2.03436e+20
215.014  9.10374e+19
215.601  5.31302e+19
216.188  1.06006e+20
216.774  7.36997e+19
217.361  9.06886e+19
217.948  2.50819e+20
218.534  2.08584e+20
219.121  2.17146e+20
219.708  1.40281e+20
220.294  1.16685e+20
220.881  7.79024e+19
221.468  1.36846e+20
222.054  1.20931e+20
222.641  5.75166e+19
223.228  7.18992e+19
223.814  1.67459e+20
224.401  2.79808e+20
224.988  2.70211e+20
225.574  7.19255e+19
226.161  3.38982e+19
226.748  4.81131e+19
227.334  1.37042e+20
227.921  1.85951e+20
228.508  1.63294e+20
229.094  1.17828e+20
229.681  8.9068e+19
230.268  2.08233e+20
230.854  2.33827e+20
231.441  1.02879e+20
232.028  9.18345e+19
232.614  9.21887e+19
233.201  1.16641e+20
233.788  1.65339e+20
234.374  2.0265e+20
